File: data/2023-11-20/d001_ZnO.csv
calibration,,calibration,,
Wavelength (nm),%T,Wavelength (nm),%T,
1600,82.1816,1600,82.1881,
1592,82.2063,1592,82.2124,
1584,82.2169,1584,82.2296,
1576,82.2218,1576,82.2291,
1568,82.2279,1568,82.2348,
1560,82.2361,1560,82.2493,
1552,82.2539,1552,82.2597,
1544,82.248,1544,82.2586,
1536,82.262,1536,82.2593,
1528,82.2564,1528,82.2645,
1520,82.2565,1520,82.2663,
1512,82.2525,1512,82.2638,
1504,82.2568,1504,82.2636,
1496,82.2522,1496,82.2655,
1488,82.2512,1488,82.2593,
1480,82.2474,1480,82.2539,
1472,82.2312,1472,82.2408,
1464,82.2488,1464,82.251,
1456,82.2441,1456,82.2467,
1448,82.2199,1448,82.2278,
1440,82.222,1440,82.2367,
1432,82.2009,1432,82.2145,
1424,82.1886,1424,82.2065,
1416,82.1783,1416,82.1985,
1408,82.1497,1408,82.1672,
1400,82.1369,1400,82.1507,
1392,82.1681,1392,82.1745,
1384,82.1131,1384,82.124,
1376,82.1597,1376,82.1637,
1368,82.1217,1368,82.1304,
1360,82.1549,1360,82.1568,
1352,82.1411,1352,82.1525,
1344,82.1097,1344,82.1199,
1336,82.0963,1336,82.1174,
1328,82.0796,1328,82.0913,
1320,82.0683,1320,82.0788,
1312,82.0483,1312,82.0552,
1304,82.0527,1304,82.0619,
1296,82.0614,1296,82.0767,
1288,82.0453,1288,82.0588,
1280,82.0145,1280,82.0255,
1272,82.0127,1272,82.027,
1264,81.9902,1264,82.0143,
1256,81.9817,1256,81.9992,
1248,81.9789,1248,81.9917,
1240,81.9772,1240,81.9805,
1232,81.9628,1232,81.968,
1224,81.96,1224,81.9737,
1216,81.9561,1216,81.9673,
1208,81.9606,1208,81.9702,
1200,81.957,1200,81.9683,
1192,81.9181,1192,81.9339,
1184,81.913,1184,81.9324,
1176,81.9113,1176,81.9284,
1168,81.9057,1168,81.9238,
1160,81.8451,1160,81.8941,
1152,81.8834,1152,81.9166,
1144,81.8943,1144,81.9083,
1136,81.9011,1136,81.9089,
1128,81.8855,1128,81.9005,
1120,81.8608,1120,81.883,
1112,81.8615,1112,81.8716,
1104,81.8267,1104,81.8521,
1096,81.8175,1096,81.8229,
1088,81.786,1088,81.7968,
1080,81.7519,1080,81.7699,
1072,81.7306,1072,81.7397,
1064,81.6975,1064,81.7113,
1056,81.6515,1056,81.6688,
1048,81.611,1048,81.634,
1040,81.5638,1040,81.5843,
1032,81.513,1032,81.5314,
1024,81.4541,1024,81.4664,
1016,81.3838,1016,81.3959,
1008,81.3017,1008,81.3102,
1000,81.204,1000,81.2144,
992,81.099,992,81.1066,
984,81.0157,984,81.0229,
976,80.9699,976,80.9895,
968,80.9137,968,80.9329,
960,80.816,960,80.8314,
952,80.7008,952,80.7178,
944,80.5989,944,80.6168,
936,80.4897,936,80.5051,
928,80.3696,928,80.3835,
920,80.1817,920,80.1965,
912,79.9582,912,79.9704,
904,79.7023,904,79.7212,
896,79.431,896,79.4467,
888,79.1226,888,79.1392,
880,78.7811,880,78.7924,
872,78.3941,872,78.4082,
864,78.0239,864,78.0386,
856,77.6362,856,77.6526,
848,77.2636,848,77.276,
840,76.9164,840,76.9286,
832,76.5977,832,76.616,
824,76.3287,824,76.3586,
816,76.1078,816,76.142,
808,75.9281,808,75.9547,
800,75.7651,800,75.791,
796,83.3573,796,83.7531,
792,83.3298,792,83.7106,
788,83.3179,788,83.6909,
784,83.3087,784,83.6902,
780,83.2916,780,83.6529,
776,83.279,776,83.6312,
772,83.2447,772,83.6294,
768,83.2103,768,83.5856,
764,83.1908,764,83.5507,
760,83.1691,760,83.5174,
756,83.1491,756,83.4647,
752,83.0853,752,83.4298,
748,83.0344,748,83.4033,
744,83.0178,744,83.3617,
740,82.9647,740,83.2929,
736,82.9247,736,83.2624,
732,82.8803,732,83.2097,
728,82.831,728,83.171,
724,82.7756,724,83.11763,
720,82.7219,720,83.0583,
716,82.683,716,83.006,
712,82.6307,712,82.9176,
708,82.5735,708,82.8775,
704,82.5229,704,82.822,
700,82.4729,700,82.7631,
696,82.4089,696,82.7052,
692,82.3433,692,82.6257,
688,82.291,688,82.5725,
684,82.2228,684,82.5024,
680,82.1697,680,82.4443,
676,82.097,676,82.3739,
672,82.0524,672,82.3249,
668,81.9941,668,82.2603,
664,81.9584,664,82.2156,
660,81.9207,660,82.1795,
656,81.8979,656,82.1528,
652,81.8642,652,82.1411,
648,81.8106,648,82.0872,
644,81.7514,644,82.0318,
640,81.6279,640,81.909,
636,81.5068,636,81.7993,
632,81.3272,632,81.619,
628,81.1487,628,81.4314,
624,80.9912,624,81.2704,
620,80.8813,620,81.16,
616,80.7076,616,80.9867,
612,80.5328,612,80.8102,
608,80.3915,608,80.6723,
604,80.2424,604,80.532,
600,80.1413,600,80.4257,
596,80.0587,596,80.3405,
592,80.0117,592,80.2828,
588,79.8643,588,80.1295,
584,79.655,584,79.9001,
580,79.4514,580,79.6777,
576,79.2789,576,79.4963,
572,79.1539,572,79.3673,
568,79.1733,568,79.3256,
564,79.1152,564,79.2746,
560,79.05,560,79.214,
556,78.9875,556,79.1496,
552,78.9143,552,79.072,
548,78.8455,548,78.9958,
544,78.7404,544,78.9022,
540,78.6478,540,78.8072,
536,78.5503,536,78.6914,
532,78.4371,532,78.567,
528,78.3081,528,78.4349,
524,78.1713,524,78.2971,
520,78.0217,520,78.1529,
516,77.8376,516,77.9779,
512,77.6594,512,77.7781,
508,77.4516,508,77.5757,
504,77.2183,504,77.3425,
500,76.967,500,77.0833,
496,76.6865,496,76.8009,
492,76.3582,492,76.4749,
488,75.9876,488,76.1072,
484,75.5761,484,75.6853,
480,75.0802,480,75.2202,
476,74.5332,476,74.6388,
472,73.9264,472,74.0319,
468,73.2268,468,73.332,
464,72.4294,464,72.5404,
460,71.5419,460,71.6462,
456,70.5073,456,70.6027,
452,69.3826,452,69.4651,
448,68.1012,448,68.1895,
444,66.6832,444,66.7698,
440,65.1167,440,65.2124,
436,63.3962,436,63.4938,
432,61.5142,432,61.6074,
428,59.5103,428,59.6,
424,57.3192,424,57.417,
420,55.0223,420,55.1212,
416,52.5059,416,52.6,
412,49.6123,412,49.7189,
408,45.8928,408,46.009,
404,40.3235,404,40.4217,
400,31.2046,400,31.316,
,,396,18.3672,
,,392,8.26204,
,,388,7.06129,
,,384,7.10027,
,,380,7.12867,
,,376,7.16054,
,,372,7.19139,
,,368,7.22804,
,,364,7.27051,
,,360,7.30122,
,,356,7.34942,
,,352,7.39537,
,,348,5.30204,
,,344,5.27294,
,,340,5.26647,
,,336,5.2753,
,,332,5.29267,
,,328,5.32396,
,,324,5.34926,
,,320,5.37817,
,,316,5.41069,
,,312,5.4441,
,,308,5.46956,
,,304,5.48639,
,,300,5.46062,

calibration,
calibration
Collection Time: 20/11/2023 11:08:45 AM
Operator Name  :
Scan Software Version: 4.10(464)
Parameter List :
Instrument                        Cary 5000
Instrument Version                1.12
Start (nm)                        1600.00
Stop (nm)                         400.00
X Mode                            Nanometers
Y Mode                            %T
Independent NIR                   On
Measurement Mode                  Auto
UV-Vis Scan Rate (nm/min)         600.000
UV-Vis Data Interval (nm)         1.00
UV-Vis Ave. Time (sec)            0.100
UV-Vis SBW (nm)                   2.000
NIR Scan Rate (nm/min)            1200.000
NIR Data Interval (nm)            2.00
NIR Ave. Time (sec)               0.100
NIR Energy                        3.00
Slit Height                       Full
Beam Mode                         Double
Signal-to-noise Mode              Off
UV Source                         On
Vis Source                        On
Third Source                      Off
Source Changeover (nm)            350.00
Detector Changeover (nm)          800.00
Grating Changeover (nm)           800.00
Baseline Correction               Off
Cycle Mode                        Off
Comments
Method Log     :
Method Name    :
Date/Time stamp: 20/11/2023 10:56:02 AM
Method Modifications:
X Start nm Changed: 20/11/2023 11:08:07 AM, Old: 800.00, New:1600.00
X Stop nm Changed: 20/11/2023 11:08:07 AM, Old: 200.00, New: 400.00
Y mode Changed: 20/11/2023 11:08:07 AM, Old:Abs, New:%T
Idpt Control Changed: 20/11/2023 11:08:07 AM, Old:0, New:1
NIR Scan Rate nm Changed: 20/11/2023 11:08:07 AM, Old:  600.000, New: 1200.000
NIR Interval nm Changed: 20/11/2023 11:08:07 AM, Old:     1.00, New:     2.00
Storage Changed: 20/11/2023 11:08:07 AM, Old:1, New:0
End Method Modifications
<SBW (nm)> , 2.00
<Energy> , 19.95
<Slit height> , Full
<Current Wavelength> , 400.00

calibration,
calibration
Collection Time: 20/11/2023 11:15:04 AM
Operator Name  :
Scan Software Version: 4.10(464)
Parameter List :
Instrument                        Cary 5000
Instrument Version                1.12
Start (nm)                        1600.00
Stop (nm)                         300.00
X Mode                            Nanometers
Y Mode                            %T
Independent NIR                   On
Measurement Mode                  Auto
UV-Vis Scan Rate (nm/min)         600.000
UV-Vis Data Interval (nm)         1.00
UV-Vis Ave. Time (sec)            0.100
UV-Vis SBW (nm)                   2.000
NIR Scan Rate (nm/min)            1200.000
NIR Data Interval (nm)            2.00
NIR Ave. Time (sec)               0.100
NIR Energy                        3.00
Slit Height                       Full
Beam Mode                         Double
Signal-to-noise Mode              Off
UV Source                         On
Vis Source                        On
Third Source                      Off
Source Changeover (nm)            350.00
Detector Changeover (nm)          800.00
Grating Changeover (nm)           800.00
Baseline Correction               Off
Cycle Mode                        Off
Comments
Method Log     :
Method Name    :
Date/Time stamp: 20/11/2023 10:56:02 AM
Method Modifications:
X Start nm Changed: 20/11/2023 11:08:07 AM, Old: 800.00, New:1600.00
X Stop nm Changed: 20/11/2023 11:08:07 AM, Old: 200.00, New: 400.00
Y mode Changed: 20/11/2023 11:08:07 AM, Old:Abs, New:%T
Idpt Control Changed: 20/11/2023 11:08:07 AM, Old:0, New:1
NIR Scan Rate nm Changed: 20/11/2023 11:08:07 AM, Old:  600.000, New: 1200.000
NIR Interval nm Changed: 20/11/2023 11:08:07 AM, Old:     1.00, New:     2.00
Storage Changed: 20/11/2023 11:08:07 AM, Old:1, New:0
X Stop nm Changed: 20/11/2023 11:14:47 AM, Old: 400.00, New: 300.00
End Method Modifications
<SBW (nm)> , 2.00
<Energy> , 45.71
<Slit height> , Full
<Current Wavelength> , 300.00